Meas. Voltage (V)	Meas. Current (A)	11/7/2022 9:58:58 AM
2.556207E-4	2.010000E-4
2.568493E-4	2.000000E-4
2.543139E-4	1.990000E-4
2.532368E-4	1.980000E-4
2.513943E-4	1.970000E-4
2.520081E-4	1.960000E-4
2.435563E-4	1.950000E-4
2.411745E-4	1.940000E-4
2.498570E-4	1.930000E-4
2.457087E-4	1.920000E-4
2.387151E-4	1.910000E-4
2.371793E-4	1.900000E-4
2.358735E-4	1.890000E-4
2.351043E-4	1.880000E-4
2.297252E-4	1.870000E-4
2.270364E-4	1.860000E-4
2.257311E-4	1.850000E-4
2.245018E-4	1.840000E-4
2.214280E-4	1.830000E-4
2.221970E-4	1.820000E-4
2.162037E-4	1.810000E-4
2.135143E-4	1.800000E-4
2.115939E-4	1.790000E-4
2.208915E-4	1.780000E-4
2.128996E-4	1.770000E-4
2.090586E-4	1.760000E-4
2.116694E-4	1.750000E-4
2.092885E-4	1.740000E-4
2.035255E-4	1.730000E-4
2.040644E-4	1.720000E-4
1.988408E-4	1.710000E-4
2.039106E-4	1.700000E-4
1.949987E-4	1.690000E-4
1.955353E-4	1.680000E-4
1.969185E-4	1.670000E-4
1.920009E-4	1.660000E-4
1.893889E-4	1.650000E-4
1.853940E-4	1.640000E-4
1.873149E-4	1.630000E-4
1.870065E-4	1.620000E-4
1.763264E-4	1.610000E-4
1.780177E-4	1.600000E-4
1.859314E-4	1.590000E-4
1.826277E-4	1.580000E-4
1.804768E-4	1.570000E-4
1.756358E-4	1.560000E-4
1.803216E-4	1.550000E-4
1.631122E-4	1.540000E-4
1.632653E-4	1.530000E-4
1.631132E-4	1.520000E-4
1.694126E-4	1.510000E-4
1.595774E-4	1.500000E-4
1.644187E-4	1.490000E-4
1.654166E-4	1.480000E-4
1.526625E-4	1.470000E-4
1.620362E-4	1.460000E-4
1.605770E-4	1.450000E-4
1.505108E-4	1.440000E-4
1.477460E-4	1.430000E-4
1.509720E-4	1.420000E-4
1.464390E-4	1.410000E-4
1.494356E-4	1.400000E-4
1.403697E-4	1.390000E-4
1.283060E-4	1.380000E-4
1.407541E-4	1.370000E-4
1.341459E-4	1.360000E-4
1.359894E-4	1.350000E-4
1.430589E-4	1.340000E-4
1.317641E-4	1.330000E-4
1.279223E-4	1.320000E-4
1.261550E-4	1.310000E-4
1.190091E-4	1.300000E-4
1.263855E-4	1.290000E-4
1.197778E-4	1.280000E-4
1.207002E-4	1.270000E-4
1.170121E-4	1.260000E-4
1.182412E-4	1.250000E-4
1.194710E-4	1.240000E-4
1.122484E-4	1.230000E-4
1.056402E-4	1.220000E-4
1.087913E-4	1.210000E-4
1.114801E-4	1.200000E-4
9.695849E-5	1.190000E-4
1.067933E-4	1.180000E-4
9.388509E-5	1.170000E-4
9.496103E-5	1.160000E-4
9.872586E-5	1.150000E-4
9.127290E-5	1.140000E-4
1.035663E-4	1.130000E-4
8.950556E-5	1.120000E-4
8.881449E-5	1.110000E-4
8.389715E-5	1.100000E-4
7.874904E-5	1.090000E-4
8.497307E-5	1.080000E-4
8.389714E-5	1.070000E-4
7.959414E-5	1.060000E-4
8.143910E-5	1.050000E-4
8.090048E-5	1.040000E-4
7.360141E-5	1.030000E-4
8.174564E-5	1.020000E-4
6.906784E-5	1.010000E-4
7.890358E-5	1.000000E-4
6.768577E-5	9.900000E-5
7.636780E-5	9.800000E-5
5.992528E-5	9.700000E-5
5.777366E-5	9.600000E-5
5.447010E-5	9.500000E-5
6.054030E-5	9.400000E-5
5.362500E-5	9.300000E-5
5.639088E-5	9.200000E-5
4.793921E-5	9.100000E-5
5.178127E-5	9.000000E-5
4.425156E-5	8.900000E-5
4.863069E-5	8.800000E-5
3.956433E-5	8.700000E-5
3.480087E-5	8.600000E-5
3.326418E-5	8.500000E-5
4.002453E-5	8.400000E-5
3.480061E-5	8.300000E-5
3.979402E-5	8.200000E-5
3.141996E-5	8.100000E-5
2.926759E-5	8.000000E-5
2.719324E-5	7.900000E-5
2.442735E-5	7.800000E-5
1.451578E-5	7.700000E-5
1.589950E-5	7.600000E-5
2.404356E-5	7.500000E-5
2.665648E-5	7.400000E-5
2.281428E-5	7.300000E-5
1.236496E-5	7.200000E-5
1.520803E-5	7.100000E-5
9.445589E-6	7.000000E-5
5.987747E-6	6.900000E-5
4.067383E-6	6.800000E-5
1.443941E-5	6.700000E-5
3.759816E-6	6.600000E-5
-9.839380E-6	6.500000E-5
-3.462211E-6	6.400000E-5
-3.693221E-6	6.300000E-5
1.147643E-6	6.200000E-5
-5.997587E-6	6.100000E-5
-5.997731E-6	6.000000E-5
-1.806079E-5	5.900000E-5
-1.406525E-5	5.800000E-5
-8.994166E-6	5.700000E-5
-7.304050E-6	5.600000E-5
-2.013536E-5	5.500000E-5
-1.844508E-5	5.400000E-5
-2.074999E-5	5.300000E-5
-2.927879E-5	5.200000E-5
-2.628208E-5	5.100000E-5
-2.735764E-5	5.000000E-5
-3.742310E-5	4.900000E-5
-2.397730E-5	4.800000E-5
-2.082724E-5	4.700000E-5
-3.250551E-5	4.600000E-5
-4.026564E-5	4.500000E-5
-3.196813E-5	4.400000E-5
-2.551384E-5	4.300000E-5
-4.587437E-5	4.200000E-5
-3.419615E-5	4.100000E-5
-4.833324E-5	4.000000E-5
-5.248210E-5	3.900000E-5
-5.010051E-5	3.800000E-5
-4.310849E-5	3.700000E-5
-4.902479E-5	3.600000E-5
-4.618180E-5	3.500000E-5
-5.540188E-5	3.400000E-5
-5.325054E-5	3.300000E-5
-6.469843E-5	3.200000E-5
-6.523642E-5	3.100000E-5
-5.947405E-5	3.000000E-5
-6.592790E-5	2.900000E-5
-6.631198E-5	2.800000E-5
-6.892452E-5	2.700000E-5
-7.706879E-5	2.600000E-5
-6.546705E-5	2.500000E-5
-6.892441E-5	2.400000E-5
-6.769501E-5	2.300000E-5
-7.960449E-5	2.200000E-5
-7.176725E-5	2.100000E-5
-7.038426E-5	2.000000E-5
-8.152505E-5	1.900000E-5
-8.951576E-5	1.800000E-5
-9.404897E-5	1.700000E-5
-8.820940E-5	1.600000E-5
-9.189766E-5	1.500000E-5
-9.719905E-5	1.400000E-5
-9.842843E-5	1.300000E-5
-8.306164E-5	1.200000E-5
-9.251225E-5	1.100000E-5
-1.052667E-4	1.000000E-5
-1.080328E-4	9.000000E-6
-1.041142E-4	8.000000E-6
-1.109524E-4	7.000000E-6
-1.071874E-4	6.000000E-6
-1.135647E-4	5.000000E-6
-1.006567E-4	4.000000E-6
-1.212483E-4	3.000000E-6
-1.096463E-4	2.000000E-6
-1.157162E-4	1.000000E-6
-1.245520E-4	0.000000E+0
-1.061886E-4	0.000000E+0
-1.098768E-4	-1.000000E-6
-1.236301E-4	-2.000000E-6
-1.297001E-4	-3.000000E-6
-1.161004E-4	-4.000000E-6
-1.283938E-4	-5.000000E-6
-1.283170E-4	-6.000000E-6
-1.260119E-4	-7.000000E-6
-1.220166E-4	-8.000000E-6
-1.297769E-4	-9.000000E-6
-1.310063E-4	-1.000000E-5
-1.372298E-4	-1.100000E-5
-1.468344E-4	-1.200000E-5
-1.514444E-4	-1.300000E-5
-1.376143E-4	-1.400000E-5
-1.445292E-4	-1.500000E-5
-1.390740E-4	-1.600000E-5
-1.550557E-4	-1.700000E-5
-1.461429E-4	-1.800000E-5
-1.481405E-4	-1.900000E-5
-1.555169E-4	-2.000000E-5
-1.570536E-4	-2.100000E-5
-1.487554E-4	-2.200000E-5
-1.684250E-4	-2.300000E-5
-1.692703E-4	-2.400000E-5
-1.715754E-4	-2.500000E-5
-1.625088E-4	-2.600000E-5
-1.681944E-4	-2.700000E-5
-1.779526E-4	-2.800000E-5
-1.727280E-4	-2.900000E-5
-1.761085E-4	-3.000000E-5
-1.738807E-4	-3.100000E-5
-1.736500E-4	-3.200000E-5
-1.778761E-4	-3.300000E-5
-1.849449E-4	-3.400000E-5
-1.799505E-4	-3.500000E-5
-1.840996E-4	-3.600000E-5
-1.865585E-4	-3.700000E-5
-1.861743E-4	-3.800000E-5
-1.807188E-4	-3.900000E-5
-1.957020E-4	-4.000000E-5
-1.991591E-4	-4.100000E-5
-1.880186E-4	-4.200000E-5
-1.974693E-4	-4.300000E-5
-2.022332E-4	-4.400000E-5
-2.053065E-4	-4.500000E-5
-2.005422E-4	-4.600000E-5
-2.033090E-4	-4.700000E-5
-2.158331E-4	-4.800000E-5
-2.104544E-4	-4.900000E-5
-2.105316E-4	-5.000000E-5
-2.139894E-4	-5.100000E-5
-2.112999E-4	-5.200000E-5
-2.075343E-4	-5.300000E-5
-2.135280E-4	-5.400000E-5
-2.249762E-4	-5.500000E-5
-2.235161E-4	-5.600000E-5
-2.330439E-4	-5.700000E-5
-2.308158E-4	-5.800000E-5
-2.354260E-4	-5.900000E-5
-2.342730E-4	-6.000000E-5
-2.373467E-4	-6.100000E-5
-2.315840E-4	-6.200000E-5
-2.360404E-4	-6.300000E-5
-2.387299E-4	-6.400000E-5
-2.438009E-4	-6.500000E-5
-2.415726E-4	-6.600000E-5
-2.524838E-4	-6.700000E-5
-2.453372E-4	-6.800000E-5
-2.553262E-4	-6.900000E-5
-2.486410E-4	-7.000000E-5
-2.452605E-4	-7.100000E-5
-2.497168E-4	-7.200000E-5
-2.465666E-4	-7.300000E-5
-2.537891E-4	-7.400000E-5
-2.692330E-4	-7.500000E-5
-2.607043E-4	-7.600000E-5
-2.451836E-4	-7.700000E-5
-2.567094E-4	-7.800000E-5
-2.477960E-4	-7.900000E-5
-2.637781E-4	-8.000000E-5
-2.643928E-4	-8.100000E-5
-2.748426E-4	-8.200000E-5
-2.773777E-4	-8.300000E-5
-2.836779E-4	-8.400000E-5
-2.843697E-4	-8.500000E-5
-2.771474E-4	-8.600000E-5
-2.811425E-4	-8.700000E-5
-2.833711E-4	-8.800000E-5
-2.690030E-4	-8.900000E-5
-2.851383E-4	-9.000000E-5
-2.824489E-4	-9.100000E-5
-2.911318E-4	-9.200000E-5
-2.918995E-4	-9.300000E-5
-2.972011E-4	-9.400000E-5
-2.994297E-4	-9.500000E-5
-2.867517E-4	-9.600000E-5
-2.997374E-4	-9.700000E-5
-2.984312E-4	-9.800000E-5
-3.011965E-4	-9.900000E-5
-3.111855E-4	-1.000000E-4
-3.136437E-4	-1.010000E-4
-3.045007E-4	-1.020000E-4
-3.023495E-4	-1.030000E-4
-3.124911E-4	-1.040000E-4
-3.084968E-4	-1.050000E-4
-3.153356E-4	-1.060000E-4
-3.218660E-4	-1.070000E-4
-3.246327E-4	-1.080000E-4
-3.238646E-4	-1.090000E-4
-3.237872E-4	-1.100000E-4
-3.290887E-4	-1.110000E-4
-3.233259E-4	-1.120000E-4
-3.230962E-4	-1.130000E-4
-3.251703E-4	-1.140000E-4
-3.356969E-4	-1.150000E-4
-3.369267E-4	-1.160000E-4
-3.311644E-4	-1.170000E-4
-3.389236E-4	-1.180000E-4
-3.413063E-4	-1.190000E-4
-3.458392E-4	-1.200000E-4
-3.486050E-4	-1.210000E-4
-3.446092E-4	-1.220000E-4
-3.500654E-4	-1.230000E-4
-3.539833E-4	-1.240000E-4
-3.492966E-4	-1.250000E-4
-3.552126E-4	-1.260000E-4
-3.551365E-4	-1.270000E-4
-3.617439E-4	-1.280000E-4
-3.642015E-4	-1.290000E-4
-3.642020E-4	-1.300000E-4
-3.639723E-4	-1.310000E-4
-3.667386E-4	-1.320000E-4
-3.641259E-4	-1.330000E-4
-3.688126E-4	-1.340000E-4
-3.684280E-4	-1.350000E-4
-3.709637E-4	-1.360000E-4
-3.726539E-4	-1.370000E-4
-3.791086E-4	-1.380000E-4
-3.730387E-4	-1.390000E-4
-3.750377E-4	-1.400000E-4
-3.785711E-4	-1.410000E-4
-3.851016E-4	-1.420000E-4
-3.880212E-4	-1.430000E-4
-3.819516E-4	-1.440000E-4
-3.960893E-4	-1.450000E-4
-3.953208E-4	-1.460000E-4
-3.941684E-4	-1.470000E-4
-3.937079E-4	-1.480000E-4
-4.029285E-4	-1.490000E-4
-4.009304E-4	-1.500000E-4
-4.000842E-4	-1.510000E-4
-4.070004E-4	-1.520000E-4
-4.074608E-4	-1.530000E-4
-4.124556E-4	-1.540000E-4
-4.075378E-4	-1.550000E-4
-4.074607E-4	-1.560000E-4
-4.081519E-4	-1.570000E-4
-4.088444E-4	-1.580000E-4
-4.124555E-4	-1.590000E-4
-4.179114E-4	-1.600000E-4
-4.221365E-4	-1.610000E-4
-4.259009E-4	-1.620000E-4
-4.220608E-4	-1.630000E-4
-4.307414E-4	-1.640000E-4
-4.238271E-4	-1.650000E-4
-4.384262E-4	-1.660000E-4
-4.318187E-4	-1.670000E-4
-4.280537E-4	-1.680000E-4
-4.357370E-4	-1.690000E-4
-4.388861E-4	-1.700000E-4
-4.434965E-4	-1.710000E-4
-4.367343E-4	-1.720000E-4
-4.410390E-4	-1.730000E-4
-4.471079E-4	-1.740000E-4
-4.489525E-4	-1.750000E-4
-4.411921E-4	-1.760000E-4
-4.503354E-4	-1.770000E-4
-4.455711E-4	-1.780000E-4
-4.475695E-4	-1.790000E-4
-4.557133E-4	-1.800000E-4
-4.556367E-4	-1.810000E-4
-4.554829E-4	-1.820000E-4
-4.616292E-4	-1.830000E-4
-4.625525E-4	-1.840000E-4
-4.615537E-4	-1.850000E-4
-4.664715E-4	-1.860000E-4
-4.725406E-4	-1.870000E-4
-4.725410E-4	-1.880000E-4
-4.747689E-4	-1.890000E-4
-4.692377E-4	-1.900000E-4
-4.766133E-4	-1.910000E-4
-4.789951E-4	-1.920000E-4
-4.866012E-4	-1.930000E-4
-4.853729E-4	-1.940000E-4
-4.855255E-4	-1.950000E-4
-4.851423E-4	-1.960000E-4
-4.892904E-4	-1.970000E-4
-4.932093E-4	-1.980000E-4
-4.936712E-4	-1.990000E-4
-4.980506E-4	-2.000000E-4
-4.983586E-4	-2.010000E-4
