Meas. Voltage (V)	Meas. Current (A)	11/7/2022 9:15:33 AM
2.546979E-4	2.010000E-4
2.563111E-4	2.000000E-4
2.568500E-4	1.990000E-4
2.464776E-4	1.980000E-4
2.423270E-4	1.970000E-4
2.450932E-4	1.960000E-4
2.418662E-4	1.950000E-4
2.366421E-4	1.940000E-4
2.377172E-4	1.930000E-4
2.360261E-4	1.920000E-4
2.288809E-4	1.910000E-4
2.340287E-4	1.900000E-4
2.414814E-4	1.890000E-4
2.302648E-4	1.880000E-4
2.301098E-4	1.870000E-4
2.306477E-4	1.860000E-4
2.255008E-4	1.850000E-4
2.229646E-4	1.840000E-4
2.237330E-4	1.830000E-4
2.198922E-4	1.820000E-4
2.171255E-4	1.810000E-4
2.175111E-4	1.800000E-4
2.143600E-4	1.790000E-4
2.153588E-4	1.780000E-4
2.147444E-4	1.770000E-4
2.056003E-4	1.760000E-4
2.085970E-4	1.750000E-4
2.029124E-4	1.740000E-4
1.999923E-4	1.730000E-4
2.027579E-4	1.720000E-4
2.038346E-4	1.710000E-4
1.933082E-4	1.700000E-4
1.987638E-4	1.690000E-4
1.872372E-4	1.680000E-4
1.829355E-4	1.670000E-4
1.937676E-4	1.660000E-4
1.978410E-4	1.650000E-4
1.925391E-4	1.640000E-4
1.846247E-4	1.630000E-4
1.823198E-4	1.620000E-4
1.879291E-4	1.610000E-4
1.807838E-4	1.600000E-4
1.851643E-4	1.590000E-4
1.759420E-4	1.580000E-4
1.804761E-4	1.570000E-4
1.800919E-4	1.560000E-4
1.638044E-4	1.550000E-4
1.665700E-4	1.540000E-4
1.663398E-4	1.530000E-4
1.677989E-4	1.520000E-4
1.642642E-4	1.510000E-4
1.620368E-4	1.500000E-4
1.584247E-4	1.490000E-4
1.436725E-4	1.480000E-4
1.528929E-4	1.470000E-4
1.492052E-4	1.460000E-4
1.541227E-4	1.450000E-4
1.472841E-4	1.440000E-4
1.374487E-4	1.430000E-4
1.505884E-4	1.420000E-4
1.478986E-4	1.410000E-4
1.396778E-4	1.400000E-4
1.392168E-4	1.390000E-4
1.309957E-4	1.380000E-4
1.370653E-4	1.370000E-4
1.393715E-4	1.360000E-4
1.309962E-4	1.350000E-4
1.301509E-4	1.340000E-4
1.341457E-4	1.330000E-4
1.259251E-4	1.320000E-4
1.211608E-4	1.310000E-4
1.272313E-4	1.300000E-4
1.233895E-4	1.290000E-4
1.153980E-4	1.280000E-4
1.153211E-4	1.270000E-4
1.173957E-4	1.260000E-4
1.249263E-4	1.250000E-4
1.161669E-4	1.240000E-4
1.070231E-4	1.230000E-4
1.125557E-4	1.220000E-4
1.170898E-4	1.210000E-4
9.895590E-5	1.200000E-4
1.078697E-4	1.190000E-4
1.030280E-4	1.180000E-4
1.000324E-4	1.170000E-4
9.526835E-5	1.160000E-4
9.565334E-5	1.150000E-4
9.357773E-5	1.140000E-4
9.526822E-5	1.130000E-4
8.635548E-5	1.120000E-4
8.812265E-5	1.110000E-4
8.405115E-5	1.100000E-4
8.451186E-5	1.090000E-4
8.259103E-5	1.080000E-4
7.621366E-5	1.070000E-4
7.967087E-5	1.060000E-4
7.890294E-5	1.050000E-4
7.198800E-5	1.040000E-4
7.390865E-5	1.030000E-4
7.252535E-5	1.020000E-4
6.146121E-5	1.010000E-4
5.078145E-5	1.000000E-4
6.046295E-5	9.900000E-5
6.430520E-5	9.800000E-5
4.440526E-5	9.700000E-5
3.533869E-5	9.600000E-5
2.181555E-5	9.500000E-5
2.837779E-6	9.400000E-5
-2.771286E-6	9.300000E-5
-2.958611E-5	9.200000E-5
-3.458015E-5	9.100000E-5
-5.463362E-5	9.000000E-5
-6.577431E-5	8.900000E-5
-8.805585E-5	8.800000E-5
-1.001188E-4	8.700000E-5
-1.118745E-4	8.600000E-5
-1.199420E-4	8.500000E-5
-1.129500E-4	8.400000E-5
-1.117207E-4	8.300000E-5
-1.168687E-4	8.200000E-5
-1.207873E-4	8.100000E-5
-1.227080E-4	8.000000E-5
-1.174065E-4	7.900000E-5
-1.211715E-4	7.800000E-5
-1.274718E-4	7.700000E-5
-1.247826E-4	7.600000E-5
-1.255510E-4	7.500000E-5
-1.214019E-4	7.400000E-5
-1.155625E-4	7.300000E-5
-1.195579E-4	7.200000E-5
-1.231690E-4	7.100000E-5
-1.335418E-4	7.000000E-5
-1.104146E-4	6.900000E-5
-1.164845E-4	6.800000E-5
-1.231690E-4	6.700000E-5
-1.313904E-4	6.600000E-5
-1.184054E-4	6.500000E-5
-1.273181E-4	6.400000E-5
-1.231690E-4	6.300000E-5
-1.210944E-4	6.200000E-5
-1.231690E-4	6.100000E-5
-1.311598E-4	6.000000E-5
-1.282401E-4	5.900000E-5
-1.184053E-4	5.800000E-5
-1.131037E-4	5.700000E-5
-1.161003E-4	5.600000E-5
-1.085705E-4	5.500000E-5
-1.256277E-4	5.400000E-5
-1.152550E-4	5.300000E-5
-1.232459E-4	5.200000E-5
-1.145635E-4	5.100000E-5
-1.060351E-4	5.000000E-5
-1.160235E-4	4.900000E-5
-1.213251E-4	4.800000E-5
-1.042678E-4	4.700000E-5
-1.145636E-4	4.600000E-5
-1.070339E-4	4.500000E-5
-1.216324E-4	4.400000E-5
-1.164845E-4	4.300000E-5
-1.237069E-4	4.200000E-5
-1.233996E-4	4.100000E-5
-1.217092E-4	4.000000E-5
-1.167149E-4	3.900000E-5
-1.219397E-4	3.800000E-5
-1.151014E-4	3.700000E-5
-1.191737E-4	3.600000E-5
-1.122585E-4	3.500000E-5
-1.153319E-4	3.400000E-5
-1.043446E-4	3.300000E-5
-1.228618E-4	3.200000E-5
-1.194811E-4	3.100000E-5
-1.125659E-4	3.000000E-5
-1.037300E-4	2.900000E-5
-1.208640E-4	2.800000E-5
-1.270877E-4	2.700000E-5
-1.309295E-4	2.600000E-5
-1.198651E-4	2.500000E-5
-1.194043E-4	2.400000E-5
-1.176370E-4	2.300000E-5
-1.100304E-4	2.200000E-5
-1.078023E-4	2.100000E-5
-1.282401E-4	2.000000E-5
-1.170223E-4	1.900000E-5
-1.097231E-4	1.800000E-5
-1.134111E-4	1.700000E-5
-1.079557E-4	1.600000E-5
-1.164845E-4	1.500000E-5
-1.131038E-4	1.400000E-5
-1.185590E-4	1.300000E-5
-1.253973E-4	1.200000E-5
-1.190201E-4	1.100000E-5
-1.101073E-4	1.000000E-5
-1.257815E-4	9.000000E-6
-1.061119E-4	8.000000E-6
-1.147941E-4	7.000000E-6
-1.314672E-4	6.000000E-6
-1.108756E-4	5.000000E-6
-1.101072E-4	4.000000E-6
-1.204799E-4	3.000000E-6
-1.131806E-4	2.000000E-6
-1.199421E-4	1.000000E-6
-1.078023E-4	0.000000E+0
-1.146404E-4	0.000000E+0
-1.266266E-4	-1.000000E-6
-1.088780E-4	-2.000000E-6
-1.276255E-4	-3.000000E-6
-1.157161E-4	-4.000000E-6
-1.356932E-4	-5.000000E-6
-1.187128E-4	-6.000000E-6
-1.320050E-4	-7.000000E-6
-1.083400E-4	-8.000000E-6
-1.263961E-4	-9.000000E-6
-1.086474E-4	-1.000000E-5
-1.187895E-4	-1.100000E-5
-1.122587E-4	-1.200000E-5
-1.169455E-4	-1.300000E-5
-1.250132E-4	-1.400000E-5
-1.101072E-4	-1.500000E-5
-1.148710E-4	-1.600000E-5
-1.137185E-4	-1.700000E-5
-1.066496E-4	-1.800000E-5
-1.124890E-4	-1.900000E-5
-1.134879E-4	-2.000000E-5
-1.161002E-4	-2.100000E-5
-1.115671E-4	-2.200000E-5
-1.182516E-4	-2.300000E-5
-1.279328E-4	-2.400000E-5
-1.184053E-4	-2.500000E-5
-1.190968E-4	-2.600000E-5
-1.152550E-4	-2.700000E-5
-1.142562E-4	-2.800000E-5
-1.269339E-4	-2.900000E-5
-1.128732E-4	-3.000000E-5
-1.284706E-4	-3.100000E-5
-1.096462E-4	-3.200000E-5
-1.198651E-4	-3.300000E-5
-1.233995E-4	-3.400000E-5
-1.051898E-4	-3.500000E-5
-1.078023E-4	-3.600000E-5
-1.289317E-4	-3.700000E-5
-1.225545E-4	-3.800000E-5
-1.117207E-4	-3.900000E-5
-1.190201E-4	-4.000000E-5
-1.089548E-4	-4.100000E-5
-1.257814E-4	-4.200000E-5
-1.143331E-4	-4.300000E-5
-1.220165E-4	-4.400000E-5
-1.120281E-4	-4.500000E-5
-1.157929E-4	-4.600000E-5
-1.063424E-4	-4.700000E-5
-1.134881E-4	-4.800000E-5
-1.224775E-4	-4.900000E-5
-1.251667E-4	-5.000000E-5
-1.118744E-4	-5.100000E-5
-1.197116E-4	-5.200000E-5
-1.095694E-4	-5.300000E-5
-1.283939E-4	-5.400000E-5
-1.237837E-4	-5.500000E-5
-1.132574E-4	-5.600000E-5
-1.153320E-4	-5.700000E-5
-1.078792E-4	-5.800000E-5
-1.187126E-4	-5.900000E-5
-1.157162E-4	-6.000000E-5
-1.175601E-4	-6.100000E-5
-1.227849E-4	-6.200000E-5
-1.097998E-4	-6.300000E-5
-1.177906E-4	-6.400000E-5
-1.169455E-4	-6.500000E-5
-1.231692E-4	-6.600000E-5
-1.220934E-4	-6.700000E-5
-1.340028E-4	-6.800000E-5
-1.145637E-4	-6.900000E-5
-1.229386E-4	-7.000000E-5
-1.142562E-4	-7.100000E-5
-1.129501E-4	-7.200000E-5
-1.230153E-4	-7.300000E-5
-1.147174E-4	-7.400000E-5
-1.288549E-4	-7.500000E-5
-1.237068E-4	-7.600000E-5
-1.313903E-4	-7.700000E-5
-1.149478E-4	-7.800000E-5
-1.207872E-4	-7.900000E-5
-1.152551E-4	-8.000000E-5
-1.251667E-4	-8.100000E-5
-1.207103E-4	-8.200000E-5
-1.180980E-4	-8.300000E-5
-1.127964E-4	-8.400000E-5
-1.165613E-4	-8.500000E-5
-1.151783E-4	-8.600000E-5
-1.130270E-4	-8.700000E-5
-1.256278E-4	-8.800000E-5
-1.259351E-4	-8.900000E-5
-1.256278E-4	-9.000000E-5
-1.239374E-4	-9.100000E-5
-1.230154E-4	-9.200000E-5
-1.326967E-4	-9.300000E-5
-1.333881E-4	-9.400000E-5
-1.435304E-4	-9.500000E-5
-1.743416E-4	-9.600000E-5
-1.760319E-4	-9.700000E-5
-2.042306E-4	-9.800000E-5
-2.287409E-4	-9.900000E-5
-2.149112E-4	-1.000000E-4
-2.381155E-4	-1.010000E-4
-2.431096E-4	-1.020000E-4
-2.548648E-4	-1.030000E-4
-2.777615E-4	-1.040000E-4
-2.736900E-4	-1.050000E-4
-3.149508E-4	-1.060000E-4
-3.142598E-4	-1.070000E-4
-3.246313E-4	-1.080000E-4
-3.190238E-4	-1.090000E-4
-3.174869E-4	-1.100000E-4
-3.224813E-4	-1.110000E-4
-3.254771E-4	-1.120000E-4
-3.279365E-4	-1.130000E-4
-3.290121E-4	-1.140000E-4
-3.414588E-4	-1.150000E-4
-3.369265E-4	-1.160000E-4
-3.435341E-4	-1.170000E-4
-3.355428E-4	-1.180000E-4
-3.462996E-4	-1.190000E-4
-3.509870E-4	-1.200000E-4
-3.459927E-4	-1.210000E-4
-3.460702E-4	-1.220000E-4
-3.384637E-4	-1.230000E-4
-3.524469E-4	-1.240000E-4
-3.622817E-4	-1.250000E-4
-3.633567E-4	-1.260000E-4
-3.513711E-4	-1.270000E-4
-3.575180E-4	-1.280000E-4
-3.566721E-4	-1.290000E-4
-3.657395E-4	-1.300000E-4
-3.626655E-4	-1.310000E-4
-3.683517E-4	-1.320000E-4
-3.646641E-4	-1.330000E-4
-3.731150E-4	-1.340000E-4
-3.683519E-4	-1.350000E-4
-3.699658E-4	-1.360000E-4
-3.701188E-4	-1.370000E-4
-3.768033E-4	-1.380000E-4
-3.779565E-4	-1.390000E-4
-3.852545E-4	-1.400000E-4
-3.825672E-4	-1.410000E-4
-3.811835E-4	-1.420000E-4
-3.931694E-4	-1.430000E-4
-3.897121E-4	-1.440000E-4
-3.884056E-4	-1.450000E-4
-3.907879E-4	-1.460000E-4
-3.949373E-4	-1.470000E-4
-3.995461E-4	-1.480000E-4
-4.000854E-4	-1.490000E-4
-4.037718E-4	-1.500000E-4
-4.091520E-4	-1.510000E-4
-4.035423E-4	-1.520000E-4
-4.074615E-4	-1.530000E-4
-4.070004E-4	-1.540000E-4
-4.101503E-4	-1.550000E-4
-4.163748E-4	-1.560000E-4
-4.192932E-4	-1.570000E-4
-4.078452E-4	-1.580000E-4
-4.176810E-4	-1.590000E-4
-4.179867E-4	-1.600000E-4
-4.172195E-4	-1.610000E-4
-4.338153E-4	-1.620000E-4
-4.242114E-4	-1.630000E-4
-4.215984E-4	-1.640000E-4
-4.307428E-4	-1.650000E-4
-4.374263E-4	-1.660000E-4
-4.355826E-4	-1.670000E-4
-4.401940E-4	-1.680000E-4
-4.320485E-4	-1.690000E-4
-4.287449E-4	-1.700000E-4
-4.404235E-4	-1.710000E-4
-4.438807E-4	-1.720000E-4
-4.431134E-4	-1.730000E-4
-4.431896E-4	-1.740000E-4
-4.474151E-4	-1.750000E-4
-4.499512E-4	-1.760000E-4
-4.499510E-4	-1.770000E-4
-4.534083E-4	-1.780000E-4
-4.514124E-4	-1.790000E-4
-4.567134E-4	-1.800000E-4
-4.555602E-4	-1.810000E-4
-4.580960E-4	-1.820000E-4
-4.595558E-4	-1.830000E-4
-4.623220E-4	-1.840000E-4
-4.660868E-4	-1.850000E-4
-4.677006E-4	-1.860000E-4
-4.712360E-4	-1.870000E-4
-4.640903E-4	-1.880000E-4
-4.704662E-4	-1.890000E-4
-4.758449E-4	-1.900000E-4
-4.856799E-4	-1.910000E-4
-4.839886E-4	-1.920000E-4
-4.755381E-4	-1.930000E-4
-4.850642E-4	-1.940000E-4
-4.849879E-4	-1.950000E-4
-4.871404E-4	-1.960000E-4
-4.902906E-4	-1.970000E-4
-4.931341E-4	-1.980000E-4
-4.942855E-4	-1.990000E-4
-5.006630E-4	-2.000000E-4
-4.963604E-4	-2.010000E-4
